#Er [keV] , O16 , Na23 , Al27 , Si28 , Si29 , Si30 , Ca40 , Ca44, Fe56, K49
0.001011646  461020200.0  53784200.0  3672240.0  93161250.0  6009839.0  4346226.0  21589150.0  720109.7  0.0  0.0
0.001035211  452656000.0  51477440.0  3550121.0  93428650.0  5713159.0  4120155.0  19218530.0  812088.9  0.0  0.0
0.001059324  442575900.0  49603000.0  3861912.0  88966930.0  5043366.0  3917188.0  20965310.0  528708.1  0.0  0.0
0.001083999  432633300.0  52358520.0  3496314.0  85123760.0  4946068.0  3638545.0  18059710.0  613104.6  0.0  0.0
0.001109248  421785200.0  50895290.0  3799891.0  85085200.0  5409015.0  3748500.0  18049470.0  612043.1  0.0  0.0
0.001135086  413196000.0  48401050.0  3698968.0  79590690.0  5920628.0  3819952.0  18432480.0  713005.2  0.0  0.0
0.001161526  400688600.0  46230280.0  3363497.0  83963780.0  4680200.0  2971115.0  18467690.0  739784.2  0.0  0.0
0.001188581  394406600.0  46631700.0  3201632.0  76845570.0  5055217.0  2766415.0  17232210.0  731885.4  0.0  0.0
0.001216267  375284700.0  45339100.0  3591025.0  72502860.0  4779324.0  3766443.0  16113890.0  643095.8  0.0  0.0
0.001244597  371889600.0  42323240.0  3002737.0  75752280.0  4368509.0  2965915.0  17411570.0  601967.3  0.0  0.0
0.001273587  367105600.0  41510900.0  2954138.0  69018120.0  4815415.0  2831393.0  14602880.0  567775.9  0.0  0.0
0.001303253  358955900.0  42504860.0  3078751.0  69194740.0  5095531.0  3480811.0  15840340.0  555823.5  0.0  0.0
0.00133361  349141700.0  41486880.0  2976222.0  67023640.0  4624639.0  2871927.0  14916200.0  500338.6  0.0  0.0
0.001364674  346855900.0  41209070.0  2836413.0  66038340.0  4991509.0  2965591.0  15480410.0  709653.4  0.0  0.0
0.001396461  330539500.0  40044560.0  2668931.0  64582080.0  4271161.0  2980208.0  15302790.0  497298.9  0.0  0.0
0.001428989  325992000.0  38147060.0  2839839.0  64468310.0  3577986.0  2710221.0  13323480.0  571798.1  0.0  0.0
0.001462274  322063400.0  39159500.0  2877963.0  62954850.0  3991075.0  2164105.0  13992550.0  500782.4  0.0  0.0
0.001496335  314125700.0  36938650.0  2524238.0  59959630.0  4198197.0  2761702.0  14187170.0  615869.3  0.0  0.0
0.001531189  301819100.0  35958590.0  2425561.0  57776240.0  4287499.0  2658418.0  13537400.0  408319.1  0.0  0.0
0.001566855  295647700.0  36254430.0  2644737.0  58176270.0  3580975.0  2627186.0  13596150.0  500312.5  0.0  0.0
0.001603352  289694700.0  33093710.0  2511588.0  59570000.0  4481629.0  2160365.0  13227960.0  552987.6  0.0  0.0
0.001640699  283770100.0  32583550.0  2439483.0  56939790.0  3694145.0  2238941.0  11272950.0  412914.4  0.0  0.0
0.001678915  276828200.0  32202470.0  2487563.0  53143450.0  3424910.0  2404779.0  11817910.0  530219.2  0.0  0.0
0.001718022  270117000.0  31411310.0  2310481.0  54497800.0  3337890.0  2464263.0  12191950.0  480613.4  0.0  0.0
0.00175804  266083800.0  31654780.0  2340565.0  48909870.0  3617494.0  1802279.0  11068940.0  484882.4  0.0  0.0
0.00179899  258909100.0  30901850.0  2006107.0  50311270.0  3282779.0  1873760.0  11855690.0  376628.8  0.0  0.0
0.001840894  253513400.0  30532200.0  2140761.0  51477870.0  3395154.0  1861379.0  10182830.0  451596.9  0.0  0.0
0.001883774  248098000.0  29039640.0  1974768.0  48408340.0  3176446.0  1677262.0  10491150.0  609345.8  0.0  0.0
0.001927653  239022800.0  28777220.0  1903305.0  47243830.0  3079963.0  2147131.0  10199260.0  385039.1  0.0  0.0
0.001972553  236298900.0  27115850.0  2081548.0  46441040.0  2863228.0  1854533.0  10444220.0  297589.4  0.0  0.0
0.0020185  226020100.0  26824420.0  2060420.0  46068320.0  2773449.0  2031549.0  9624241.0  381175.3  0.0  0.0
0.002065517  227232000.0  26713240.0  1935816.0  43771590.0  2622885.0  1996801.0  9907495.0  242788.7  0.0  0.0
0.002113629  220733500.0  25592280.0  1912780.0  43803050.0  2870120.0  2036057.0  9219313.0  378471.1  0.0  0.0
0.002162862  215021300.0  25231890.0  1788267.0  39977480.0  3134715.0  1665863.0  9022908.0  443087.9  0.0  0.0
0.002213241  211431000.0  23737170.0  1940075.0  41165570.0  2697259.0  1639363.0  9702667.0  336318.7  0.0  0.0
0.002264794  205268600.0  24339780.0  1484797.0  39225140.0  2525362.0  1497221.0  8734391.0  315912.2  0.0  0.0
0.002317548  200213900.0  23888420.0  1554263.0  39974530.0  2502481.0  1483026.0  8785733.0  241759.0  0.0  0.0
0.002371531  198520700.0  23346880.0  1522654.0  37926980.0  2560484.0  1600957.0  8850045.0  541785.5  0.0  0.0
0.002426771  193669500.0  22207020.0  1404884.0  38250020.0  2273736.0  1736904.0  8457020.0  319001.2  0.0  0.0
0.002483298  186256800.0  22085400.0  1485743.0  36547260.0  2305815.0  1614064.0  8445425.0  337363.4  0.0  0.0
0.002541141  182482600.0  21337680.0  1425495.0  35718570.0  2593444.0  1378238.0  7946923.0  366618.5  0.0  0.0
0.002600332  178586400.0  21077740.0  1471158.0  35344150.0  2638813.0  1386072.0  7820479.0  351654.3  0.0  0.0
0.002660901  175106600.0  21871840.0  1562630.0  34416960.0  2332501.0  1487594.0  7541477.0  302963.2  0.0  0.0
0.002722882  170831000.0  19797610.0  1459846.0  33186420.0  2422035.0  1448087.0  7531323.0  205388.4  0.0  0.0
0.002786306  166515000.0  19242110.0  1258830.0  33164090.0  2316476.0  1238515.0  6909508.0  380092.3  0.0  0.0
0.002851207  163570800.0  19765510.0  1415122.0  32031820.0  1981477.0  1322451.0  6929972.0  263074.4  0.0  0.0
0.00291762  159374900.0  19596520.0  1311502.0  31358350.0  1802150.0  1384465.0  6922645.0  316393.4  0.0  0.0
0.00298558  156679700.0  18738110.0  1259309.0  30273570.0  2129192.0  1338365.0  6689259.0  294134.8  0.0  0.0
0.003055124  151760800.0  18059450.0  1409691.0  29837270.0  1944888.0  1236871.0  6356970.0  289540.7  0.0  0.0
0.003126287  147930600.0  17422840.0  1439958.0  28574400.0  1808993.0  1159420.0  6179612.0  274396.1  0.0  0.0
0.003199107  145211100.0  16932340.0  1115339.0  27914860.0  1963283.0  1343475.0  5673187.0  179306.3  0.0  0.0
0.003273624  143148200.0  17165610.0  1276366.0  27494350.0  1930180.0  1322816.0  6026732.0  254721.1  0.0  0.0
0.003349876  138398300.0  17080200.0  1229491.0  26904660.0  2005783.0  1196168.0  6104950.0  142688.5  0.0  0.0
0.003427905  134356600.0  16476740.0  1098112.0  27094250.0  1843614.0  1251219.0  6037968.0  203285.3  0.0  0.0
0.003507751  131444200.0  15994280.0  1172629.0  25836460.0  1661036.0  920100.6  6368016.0  238662.3  0.0  0.0
0.003589457  129749900.0  15198830.0  1096232.0  24933520.0  1508400.0  1062620.0  5458840.0  254864.0  0.0  0.0
0.003673066  126272300.0  16227130.0  1013705.0  25440200.0  1714947.0  1154369.0  5352228.0  184947.9  0.0  0.0
0.003758623  122091000.0  15052730.0  1146615.0  23807980.0  1584407.0  1212056.0  5812045.0  257839.6  0.0  0.0
0.003846173  120513900.0  15120790.0  891534.7  23222320.0  1565581.0  898025.4  5215615.0  160748.9  0.0  0.0
0.003935762  116307900.0  14023660.0  974607.4  22013520.0  1493019.0  837724.6  4938944.0  100514.2  0.0  0.0
0.004027437  114086000.0  14339940.0  952571.7  21866840.0  1480021.0  970815.6  4989924.0  255106.6  0.0  0.0
0.004121248  112091600.0  13871910.0  855507.1  21510940.0  1664348.0  882242.7  4565827.0  155719.0  0.0  0.0
0.004217245  108603800.0  13755790.0  1005642.0  20675100.0  1442398.0  1003539.0  4852336.0  176872.2  0.0  0.0
0.004315477  107831100.0  13053130.0  878699.1  21124220.0  1408756.0  869679.5  4746200.0  188225.1  0.0  0.0
0.004415997  106242600.0  12357050.0  856685.1  20951470.0  1390893.0  808674.4  4136654.0  150451.3  0.0  0.0
0.004518859  101020800.0  13212520.0  858898.1  20431340.0  1398019.0  898586.9  4685552.0  172495.1  0.0  0.0
0.004624117  98984440.0  12238700.0  779496.6  19419050.0  1306564.0  827391.4  4331248.0  152911.2  0.0  0.0
0.004731826  96395530.0  12074320.0  841122.0  18564890.0  1264489.0  753361.3  4241034.0  97913.52  0.0  0.0
0.004842045  94605750.0  11958770.0  823125.7  18642070.0  1245392.0  830982.9  4374734.0  172984.3  0.0  0.0
0.00495483  93638310.0  11674800.0  771410.1  17726660.0  1142026.0  845629.7  4193638.0  85275.3  0.0  0.0
0.005070243  90065180.0  11514450.0  641579.4  17419910.0  1277042.0  735282.8  3694091.0  192437.6  0.0  0.0
0.005188344  89738140.0  11445000.0  771045.7  17683650.0  1199883.0  769348.9  3830376.0  146946.6  0.0  0.0
0.005309196  85992970.0  11153370.0  756210.1  15904010.0  1319228.0  782217.9  3549056.0  104362.9  0.0  0.0
0.005432863  84182150.0  10416830.0  654966.0  16721860.0  1191999.0  720649.4  3631050.0  90970.1  0.0  0.0
0.005559411  85180950.0  10645330.0  651836.5  16231270.0  1194327.0  650535.6  3460579.0  154428.6  0.0  0.0
0.005688906  81471050.0  10302840.0  760212.2  15185210.0  982064.8  616460.0  3430180.0  124780.9  0.0  0.0
0.005821418  79487510.0  10197950.0  689063.2  15381940.0  1105144.0  666835.4  3436188.0  148313.7  0.0  0.0
0.005957016  76795160.0  10015540.0  648316.2  15570760.0  968149.2  666864.0  3238069.0  65779.64  0.0  0.0
0.006095773  75071700.0  9578572.0  601395.9  14338870.0  1048764.0  620097.5  3105630.0  145763.2  0.0  0.0
0.006237762  73726970.0  9731681.0  629424.2  14859800.0  1071833.0  575405.6  3054583.0  165033.0  0.0  0.0
0.006383058  71963930.0  8973405.0  616461.5  13858530.0  950360.3  557851.0  2992056.0  154825.4  0.0  0.0
0.006531738  70483970.0  9196395.0  528529.4  13545100.0  916525.4  547593.6  3119622.0  80885.18  0.0  0.0
0.006683882  68029450.0  8914352.0  469833.3  13309760.0  857045.2  535063.7  3012870.0  129149.6  0.0  0.0
0.00683957  67996030.0  8599276.0  606793.7  12815970.0  744961.7  485163.9  2671191.0  147336.3  0.0  0.0
0.006998884  66265120.0  8229557.0  632925.1  13008650.0  910600.2  450360.8  2758033.0  98013.24  0.0  0.0
0.007161909  63645440.0  8329953.0  474334.7  12418530.0  872935.0  577220.2  2721492.0  84392.37  0.0  0.0
0.007328731  63020260.0  8145074.0  491959.1  12457250.0  837742.5  501260.0  2777007.0  46760.93  0.0  0.0
0.007499439  61959410.0  8126166.0  538586.6  11816970.0  793233.7  540427.0  2729228.0  94411.85  0.0  0.0
0.007674123  59627640.0  7826410.0  538914.4  12160860.0  877838.4  457213.8  2474668.0  90060.85  0.0  0.0
0.007852877  58454410.0  7629751.0  435224.7  11035070.0  866500.7  468448.9  2658032.0  121151.4  0.0  0.0
0.008035794  57243220.0  7566973.0  505077.1  11217100.0  779886.0  450891.8  2314086.0  69972.83  0.0  0.0
0.008222971  56323840.0  7575624.0  416443.1  10681430.0  724223.8  511705.4  2376522.0  129923.4  0.0  0.0
0.008414509  54340230.0  7089536.0  405972.4  10590390.0  689891.1  387784.0  2307584.0  56831.31  0.0  0.0
0.008610508  53793970.0  7113411.0  409842.2  10097070.0  653744.3  513507.6  2194138.0  76227.44  0.0  0.0
0.008811073  52481280.0  6943630.0  449021.9  10214810.0  776518.4  435796.6  2226045.0  78099.46  0.0  0.0
0.009016309  51536020.0  6670196.0  490117.1  9866048.0  674241.0  423509.7  2140827.0  83142.69  0.0  0.0
0.009226326  49041630.0  6688738.0  406985.4  9745699.0  720426.6  379484.0  1982203.0  66177.87  0.0  0.0
0.009441234  48592330.0  6300814.0  349327.9  9378604.0  700186.3  476880.7  2171240.0  54541.84  0.0  0.0
0.009661149  47386410.0  6388764.0  401235.0  9431784.0  639537.0  436924.0  2036954.0  44808.24  0.0  0.0
0.009886186  46841240.0  6378314.0  423158.3  9223867.0  615496.6  406841.4  2042208.0  65819.6  0.0  0.0
0.01011646  45901750.0  6227303.0  324263.9  8737209.0  600297.8  430371.5  2037072.0  75291.1  0.0  0.0
0.01035211  44545400.0  5832827.0  396846.3  8443386.0  537182.1  379654.7  1887320.0  48841.11  0.0  0.0
0.01059324  42701940.0  5940630.0  327128.1  8464425.0  655837.7  341594.6  1836757.0  101441.7  0.0  0.0
0.01083999  42992780.0  5667639.0  366855.8  8196061.0  497125.7  388680.7  1797615.0  64010.26  0.0  0.0
0.01109248  41553290.0  5644627.0  334714.1  7985127.0  491457.1  292113.3  1890342.0  67385.61  0.0  0.0
0.01135086  40474110.0  5458844.0  300890.1  7856450.0  568680.0  350118.9  1541909.0  63097.24  0.0  0.0
0.01161526  39634930.0  5359995.0  363210.0  7582820.0  594174.9  314966.8  1677733.0  48962.13  0.0  0.0
0.01188581  38317220.0  5333981.0  369833.7  7574945.0  545239.9  324915.6  1615844.0  61141.5  0.0  0.0
0.01216267  38157930.0  5513462.0  262264.6  7207943.0  499218.7  303133.2  1601869.0  46873.06  0.0  0.0
0.01244597  36736850.0  5455818.0  335054.6  7289995.0  453697.6  322258.4  1546279.0  49389.81  0.0  0.0
0.01273587  36143150.0  5087662.0  320426.7  7083800.0  478762.0  279639.2  1542506.0  76883.58  0.0  0.0
0.01303253  34910370.0  5112708.0  330981.7  6793854.0  450002.2  279740.9  1362372.0  65135.76  0.0  0.0
0.0133361  34632610.0  5014424.0  318287.0  6780934.0  481637.0  304697.4  1473107.0  45282.57  0.0  0.0
0.01364674  33982900.0  5011861.0  273644.2  6353054.0  473473.5  298380.9  1428978.0  46271.93  0.0  0.0
0.01396461  33227630.0  4836007.0  305107.0  6405179.0  473979.4  239473.0  1373200.0  41144.23  0.0  0.0
0.01428989  32587270.0  4559363.0  242555.7  6338624.0  386885.8  272358.4  1325767.0  42593.9  0.0  0.0
0.01462274  30939880.0  4532801.0  244013.2  6302548.0  468148.4  282930.0  1278513.0  56542.89  0.0  0.0
0.01496335  30486540.0  4527766.0  238656.6  5937470.0  374360.5  208588.9  1292579.0  50277.94  0.0  0.0
0.01531189  30532950.0  4464921.0  259579.2  5826464.0  368904.8  229756.0  1215492.0  48935.58  0.0  0.0
0.01566855  29528590.0  4574957.0  212152.3  5456123.0  451547.3  224349.8  1168049.0  47217.76  0.0  0.0
0.01603352  28783010.0  4280785.0  243146.7  5451653.0  338376.5  238993.2  1210658.0  43403.42  0.0  0.0
0.01640699  27590570.0  4129926.0  246228.8  5547086.0  364360.0  242532.5  1087102.0  48790.25  0.0  0.0
0.01678915  27409840.0  4157676.0  223474.7  5115086.0  346596.4  207031.8  1164971.0  26609.66  0.0  0.0
0.01718022  26384480.0  3976092.0  240006.0  5166138.0  309082.1  200635.3  1068538.0  33600.73  0.0  0.0
0.0175804  26026480.0  3818766.0  201909.8  4931301.0  313811.3  186106.4  1024374.0  30735.61  0.0  0.0
0.0179899  25723750.0  3938818.0  210058.4  4830839.0  351493.1  281424.1  1058379.0  34318.6  0.0  0.0
0.01840894  24841440.0  3856981.0  203871.0  4692216.0  292370.7  219228.3  1112333.0  44923.48  0.0  0.0
0.01883774  24454830.0  3731379.0  216079.6  4793375.0  299675.9  171629.8  971577.8  37914.92  0.0  0.0
0.01927653  23472300.0  3606869.0  198306.6  4556767.0  285687.1  197239.2  975316.4  31092.91  0.0  0.0
0.01972553  23206470.0  3679388.0  205565.7  4397695.0  308176.3  186408.5  830284.3  39888.29  0.0  0.0
0.020185  22462120.0  3443297.0  170896.7  4443978.0  289238.5  222556.6  914626.4  25975.29  0.0  0.0
0.02065517  22397100.0  3433107.0  204103.8  4528479.0  294442.5  168337.1  889277.6  31164.18  0.0  0.0
0.02113629  21499700.0  3425792.0  193575.6  4183849.0  284988.9  173097.1  931443.4  51194.16  0.0  0.0
0.02162862  21233190.0  3467525.0  171859.1  4144420.0  255347.3  145242.3  869041.1  29537.2  0.0  0.0
0.02213241  20375240.0  3433722.0  204347.1  3933891.0  246310.1  178305.8  870708.6  33258.6  0.0  0.0
0.02264794  20301580.0  3209323.0  149049.4  3884397.0  270595.4  159288.9  822337.6  32596.89  0.0  0.0
0.02317548  19579480.0  3082896.0  126206.4  3761292.0  230072.6  161701.9  782504.4  23864.49  0.0  0.0
0.02371531  18945870.0  3176606.0  169960.5  3679725.0  263522.2  143506.3  740294.0  33953.86  0.0  0.0
0.02426771  18720270.0  3115000.0  161381.1  3534454.0  248861.5  139183.3  702396.6  28307.4  0.0  0.0
0.02483298  18368100.0  3089565.0  144083.4  3634543.0  239580.2  162398.5  747366.2  24429.39  0.0  0.0
0.02541141  17702790.0  2984364.0  159840.9  3523290.0  258729.0  150588.7  751695.6  21282.39  0.0  0.0
0.02600332  17553810.0  3056358.0  172816.3  3483387.0  186451.0  123295.8  744091.2  29558.46  0.0  0.0
0.02660901  16969130.0  2970971.0  144087.1  3302075.0  216865.4  130051.9  627924.3  20275.72  0.0  0.0
0.02722882  16729800.0  2790053.0  129532.0  3141980.0  228431.6  133959.6  618068.5  18699.08  0.0  0.0
0.02786306  16133820.0  2832874.0  115479.7  3082520.0  227275.8  151177.5  652124.6  26021.7  0.0  0.0
0.02851207  16265100.0  2857059.0  145880.0  2999064.0  211639.7  123382.7  636475.6  12914.29  0.0  0.0
0.0291762  15474620.0  2787210.0  135106.9  3021932.0  204608.6  142583.8  634403.5  21961.24  0.0  0.0
0.0298558  15299680.0  2718124.0  120739.9  2988578.0  197786.0  128361.2  616313.2  23893.85  0.0  0.0
0.03055124  14643850.0  2763932.0  115613.7  2833385.0  212150.0  116932.5  597782.0  18167.04  0.0  0.0
0.03126287  14663790.0  2652141.0  123666.4  2726447.0  182767.2  122615.8  574762.6  19112.0  0.0  0.0
0.03199107  14060890.0  2576423.0  121012.2  2699789.0  184713.0  133693.4  587397.3  23076.83  0.0  0.0
0.03273624  13393000.0  2456610.0  114825.3  2643124.0  185906.8  117143.6  530589.8  22188.03  0.0  0.0
0.03349876  13186620.0  2470321.0  134861.6  2571029.0  188867.3  102959.6  526302.0  17357.69  0.0  0.0
0.03427905  13280350.0  2432403.0  118285.9  2525105.0  173028.5  103819.8  508704.9  20040.33  0.0  0.0
0.03507751  12965090.0  2495575.0  103238.9  2405002.0  152958.7  110405.9  475854.6  19209.92  0.0  0.0
0.03589457  12524020.0  2474955.0  110307.1  2418073.0  157133.6  119291.7  475367.1  20215.07  0.0  0.0
0.03673066  12174430.0  2383243.0  82367.49  2242430.0  152759.8  109520.3  437761.0  15094.82  0.0  0.0
0.03758623  12142600.0  2305743.0  91911.81  2195239.0  165185.2  100687.3  476751.5  15491.94  0.0  0.0
0.03846173  11711390.0  2215447.0  105206.4  2266549.0  160422.3  83533.56  456356.2  12685.57  0.0  0.0
0.03935762  11373480.0  2195729.0  82029.23  2168101.0  134132.1  114186.9  367376.0  13802.62  0.0  0.0
0.04027437  11304050.0  2354178.0  85143.21  2127039.0  169586.8  95357.37  432872.6  20963.92  0.0  0.0
0.04121248  10768350.0  2194645.0  97224.22  2017967.0  174014.8  91325.92  419740.6  11107.57  0.0  0.0
0.04217245  10676220.0  2185303.0  84443.13  2050481.0  131959.0  94566.41  402667.4  14672.34  0.0  0.0
0.04315477  10430860.0  2145692.0  80400.29  2013493.0  141330.6  85236.44  366387.7  11694.3  0.0  0.0
0.04415997  10175310.0  2099254.0  82278.83  1883951.0  144731.1  83648.05  358324.5  16565.93  0.0  0.0
0.04518859  9975189.0  2092566.0  81380.77  1878786.0  125044.3  88065.31  399716.8  12465.7  0.0  0.0
0.04624117  9595042.0  2102366.0  69964.9  1835490.0  153400.9  72660.68  349056.7  18089.5  0.0  0.0
0.04731826  9589349.0  2026480.0  78630.0  1751817.0  122549.2  79740.2  327480.4  10621.42  0.0  0.0
0.04842045  9225831.0  2009123.0  66257.99  1710494.0  127269.7  73530.13  345128.1  7165.787  0.0  0.0
0.0495483  9043508.0  2028394.0  77405.68  1670136.0  132203.4  68525.26  354212.3  11025.17  0.0  0.0
0.05070243  8889408.0  2010588.0  94574.63  1682985.0  105446.8  62384.22  312748.3  8266.983  0.0  0.0
0.05188344  8447101.0  1944478.0  64633.03  1667248.0  130238.2  69518.88  294288.5  13736.72  0.0  0.0
0.05309196  8447812.0  1935656.0  74382.15  1576816.0  117550.8  75006.81  335372.3  10686.66  0.0  0.0
0.05432863  8051238.0  1863718.0  60105.38  1514483.0  114825.6  71736.66  304716.2  12060.8  0.0  0.0
0.05559411  8071996.0  1875490.0  65016.29  1442629.0  113802.3  66485.94  256359.1  12065.13  0.0  0.0
0.05688906  7756763.0  1847407.0  61475.3  1415507.0  101093.3  64457.07  297031.5  5602.044  0.0  0.0
0.05821418  7640862.0  1820078.0  53152.21  1431166.0  103238.2  71833.51  262981.4  9887.503  0.0  0.0
0.05957016  7373518.0  1834248.0  58450.62  1412798.0  95465.4  61438.7  251337.5  8929.631  0.0  0.0
0.06095773  7384743.0  1826061.0  57478.59  1355434.0  101337.5  56614.2  251113.4  9984.556  0.0  0.0
0.06237762  7142952.0  1749478.0  50441.33  1371231.0  87455.36  60429.77  257796.7  7300.125  0.0  0.0
0.06383058  6864094.0  1766454.0  58654.18  1244246.0  98875.7  56152.34  214962.3  10616.31  0.0  0.0
0.06531738  6769597.0  1730214.0  45172.27  1294006.0  88623.62  58023.9  235602.5  8308.158  0.0  0.0
0.06683882  6523473.0  1707722.0  50350.55  1300954.0  97227.52  48279.81  213865.7  5228.14  0.0  0.0
0.0683957  6481296.0  1745885.0  51096.32  1213102.0  101663.4  57032.86  219832.8  9012.982  0.0  0.0
0.06998884  6370314.0  1627682.0  56069.76  1169085.0  84194.73  46001.39  234607.0  7374.389  0.0  0.0
0.07161909  6113929.0  1653080.0  45093.62  1154101.0  87413.39  48471.82  223246.7  10093.03  0.0  0.0
0.07328731  6068829.0  1602966.0  48876.26  1079236.0  86758.23  50208.03  207027.3  6660.301  0.0  0.0
0.07499439  5816634.0  1618428.0  43976.28  1129100.0  77198.06  48292.38  194839.4  7827.346  0.0  0.0
0.07674123  5688605.0  1575927.0  46143.16  1054493.0  77010.23  53629.61  179144.1  7076.426  0.0  0.0
0.07852877  5540896.0  1529567.0  51863.27  999752.9  67692.12  44165.03  191357.4  8163.516  0.0  0.0
0.08035794  5440672.0  1522023.0  39786.87  1030627.0  70517.0  51866.66  177700.0  5861.812  0.0  0.0
0.08222971  5328230.0  1527154.0  44864.76  991173.8  66362.4  43391.47  178551.0  6224.239  0.0  0.0
0.08414509  5161163.0  1548576.0  51717.41  961667.0  60226.48  39665.4  169737.6  4959.955  0.0  0.0
0.08610508  5039517.0  1537502.0  42919.1  957512.9  65608.16  40881.51  163701.7  5108.882  0.0  0.0
0.08811073  4882844.0  1521660.0  47092.76  897713.1  71982.85  38312.42  156761.0  5539.714  0.0  0.0
0.09016309  4847106.0  1463734.0  36058.71  902039.2  64792.57  39325.24  164170.2  4395.31  0.0  0.0
0.09226326  4669602.0  1440775.0  34688.64  861038.9  60688.71  39835.67  160326.2  4225.498  0.0  0.0
0.09441234  4594789.0  1447550.0  43456.18  847350.2  65260.88  39548.47  160725.5  4245.707  0.0  0.0
0.09661149  4441782.0  1424085.0  37021.66  831023.8  60846.14  36862.28  135985.8  4046.212  0.0  0.0
0.09886186  4341518.0  1471787.0  29745.24  808964.0  63146.35  36300.66  147238.0  3890.342  0.0  0.0
0.1011646  4248982.0  1405896.0  30839.44  769107.1  57975.04  33650.16  113433.1  4828.684  0.0  0.0
0.1035211  4099187.0  1423644.0  43386.1  762779.1  58268.4  34861.12  132135.7  2335.372  0.0  0.0
0.1059324  4048628.0  1358941.0  39419.02  726382.5  56130.26  30502.56  134856.6  3805.749  0.0  0.0
0.1083999  3908871.0  1401454.0  31306.7  688102.8  50373.88  37150.78  127403.2  3383.331  0.0  0.0
0.1109248  3802835.0  1387244.0  32838.66  685416.6  55506.82  32318.41  114985.4  2000.14  0.0  0.0
0.1135086  3738946.0  1349459.0  32799.49  679604.2  56986.96  35912.55  99878.59  4225.089  0.0  0.0
0.1161526  3638869.0  1324091.0  28796.4  656259.2  54281.82  30399.32  108985.4  2416.357  0.0  0.0
0.1188581  3564551.0  1306314.0  25702.52  655940.6  54420.45  28401.16  95969.03  4928.713  0.0  0.0
0.1216267  3364802.0  1293524.0  31590.67  625745.5  49224.01  28321.25  102622.9  2842.878  0.0  0.0
0.1244597  3378610.0  1304625.0  30610.52  613248.0  52209.31  26924.65  100212.8  4624.209  0.0  0.0
0.1273587  3294223.0  1278168.0  25503.1  612762.1  48926.06  30475.83  98723.43  2854.072  0.0  0.0
0.1303253  3186903.0  1304173.0  24465.67  575126.6  54953.61  30339.88  96666.19  3343.292  0.0  0.0
0.133361  3101551.0  1252635.0  25656.91  561299.5  45189.06  26645.98  89299.11  2424.075  0.0  0.0
0.1364674  3051273.0  1243764.0  20382.99  535588.5  44525.96  24750.8  85627.9  1280.109  0.0  0.0
0.1396461  2987654.0  1248400.0  25601.44  541896.1  49081.81  25609.55  81754.89  2775.229  0.0  0.0
0.1428989  2858854.0  1252323.0  22940.5  535529.9  46475.86  20744.85  78687.58  2768.275  0.0  0.0
0.1462274  2823812.0  1210115.0  22104.23  511315.7  41426.95  23088.35  77717.26  1032.763  0.0  0.0
0.1496335  2730723.0  1218889.0  21991.5  479325.0  43197.59  22479.11  83677.32  3296.742  0.0  0.0
0.1531189  2699407.0  1194663.0  23156.49  461800.9  45770.45  25401.89  80934.8  2374.461  0.0  0.0
0.1566855  2652326.0  1239240.0  19518.06  467143.4  45038.99  23352.86  75476.3  1955.624  0.0  0.0
0.1603352  2519696.0  1183020.0  19581.71  451342.4  40154.74  17460.55  73040.44  1866.944  0.0  0.0
0.1640699  2470607.0  1157579.0  24529.3  421040.9  34506.29  21748.39  69501.9  1381.877  0.0  0.0
0.1678915  2402942.0  1183397.0  22493.78  410071.7  43560.26  19641.83  64424.46  2354.596  0.0  0.0
0.1718022  2338894.0  1164553.0  23177.24  424105.9  42216.58  20215.02  62462.47  1092.641  0.0  0.0
0.175804  2307179.0  1157119.0  19568.44  406760.1  35893.39  19817.57  62650.12  3207.887  0.0  0.0
0.179899  2229343.0  1150754.0  19366.1  384403.6  39490.87  22235.5  53510.38  1718.219  0.0  0.0
0.1840894  2159724.0  1141260.0  23154.65  384459.3  43499.47  18046.73  61416.36  2421.093  0.0  0.0
0.1883774  2113689.0  1131289.0  17134.67  356805.3  32684.81  20498.72  47992.96  1187.379  0.0  0.0
0.1927653  2098410.0  1109331.0  19557.83  358696.9  40504.1  17066.84  48201.0  2522.564  0.0  0.0
0.1972553  1990447.0  1111068.0  21353.52  362353.2  34187.05  17806.11  46123.63  677.2908  0.0  0.0
0.20185  1952752.0  1081046.0  17889.56  331148.3  37250.34  17543.43  50725.45  2101.325  0.0  0.0
0.2065517  1907583.0  1077406.0  15776.18  317506.2  33626.86  17864.44  49463.01  1417.857  0.0  0.0
0.2113629  1819683.0  1074967.0  18042.34  322748.0  39374.5  19258.24  43099.49  1884.486  0.0  0.0
0.2162862  1791382.0  1085487.0  18032.24  310492.1  35360.25  16658.17  38219.16  1585.571  0.0  0.0
0.2213241  1736836.0  1089037.0  13669.77  315984.4  31538.47  17716.97  46956.39  1217.635  0.0  0.0
0.2264794  1687688.0  1085676.0  13303.36  281870.8  31872.63  17267.26  41183.97  567.2479  0.0  0.0
0.2317548  1637678.0  1058900.0  16919.67  287725.7  26476.6  15953.32  46245.61  1711.734  0.0  0.0
0.2371531  1597113.0  1018729.0  14180.66  284094.5  24285.03  15113.46  40775.28  1059.629  0.0  0.0
0.2426771  1583073.0  1043575.0  14627.75  266071.9  30272.91  13537.4  39758.17  1041.236  0.0  0.0
0.2483298  1514974.0  993975.3  12820.27  267491.0  28957.0  12094.71  34096.89  1756.642  0.0  0.0
0.2541141  1467842.0  1027086.0  14095.36  259456.3  29839.28  13881.63  38168.34  1159.302  0.0  0.0
0.2600332  1426342.0  972679.5  11766.23  249441.7  31242.37  13465.4  36728.11  1362.069  0.0  0.0
0.2660901  1387855.0  993289.5  15240.69  246457.7  28635.23  12678.71  40054.21  1613.601  0.0  0.0
0.2722882  1344516.0  979216.6  11948.03  234978.8  27722.92  12056.73  36264.82  1141.106  0.0  0.0
0.2786306  1319588.0  958821.7  12157.21  232236.0  31168.52  14305.53  38836.3  1065.716  0.0  0.0
0.2851207  1269375.0  932654.7  10973.67  225818.2  29842.21  9531.476  37207.09  1692.345  0.0  0.0
0.291762  1228455.0  942062.8  12230.92  207044.9  27706.95  10105.38  37388.49  948.8264  0.0  0.0
0.298558  1221697.0  929275.5  12051.85  218970.8  25341.75  9608.834  42326.39  1756.992  0.0  0.0
0.3055124  1184556.0  919735.7  11868.07  212356.1  25104.91  10583.11  39929.7  1179.494  0.0  0.0
0.3126287  1136698.0  909872.9  12847.11  196396.1  26461.49  9264.998  34574.39  1719.313  0.0  0.0
0.3199107  1111192.0  885779.4  11496.69  200882.9  22859.69  8663.647  39266.27  1547.539  0.0  0.0
0.3273624  1077368.0  878904.9  10465.23  194534.2  23227.56  10225.24  31190.2  1999.213  0.0  0.0
0.3349876  1038821.0  875713.0  11477.21  181565.6  25703.36  10130.32  32465.17  1206.27  0.0  0.0
0.3427905  995488.6  849219.2  9056.124  190787.4  26408.45  8738.147  34358.1  1524.448  0.0  0.0
0.3507751  988316.4  827328.9  11175.47  188493.1  25787.04  9393.686  36226.78  1678.813  0.0  0.0
0.3589457  967895.8  803019.3  10970.93  181569.9  28378.2  9476.772  30218.52  1953.255  0.0  0.0
0.3673066  935493.9  790828.4  10927.43  189093.4  22938.77  9373.521  31659.27  1099.422  0.0  0.0
0.3758623  908372.8  783439.7  10876.74  187713.2  24586.8  9489.011  29146.07  836.3601  0.0  0.0
0.3846173  887516.7  749472.1  12402.69  178857.0  25946.09  7644.683  30947.92  1527.821  0.0  0.0
0.3935762  860712.6  709357.3  10589.92  183099.3  25813.42  9025.184  31378.3  1252.479  0.0  0.0
0.4027437  820428.4  699106.5  12195.81  192414.5  22584.35  8913.668  29813.31  1073.103  0.0  0.0
0.4121248  819387.3  655836.4  9449.687  177541.7  25444.17  9692.85  31080.8  1173.24  0.0  0.0
0.4217245  789478.7  629321.2  11322.92  177902.6  26731.58  9766.739  30965.17  1436.54  0.0  0.0
0.4315477  774982.9  580484.7  11465.42  176460.9  25675.48  11163.23  25284.63  1396.091  0.0  0.0
0.4415997  729985.4  545017.0  10900.83  176819.1  24303.83  8878.68  25423.3  1470.235  0.0  0.0
0.4518859  722029.0  498795.2  11386.03  171190.9  24673.57  8747.624  28224.54  1440.133  0.0  0.0
0.4624117  707420.8  479228.2  9819.242  171094.9  25588.51  7332.185  24116.39  1219.786  0.0  0.0
0.4731826  689183.5  427744.1  12649.53  169294.8  25093.47  9087.636  24232.23  383.7557  0.0  0.0
0.4842045  669299.9  403958.1  9587.821  168104.3  23450.92  8474.191  24007.31  1093.937  0.0  0.0
0.495483  637476.0  372019.2  11494.94  162309.8  21773.96  7054.481  22859.18  822.5508  0.0  0.0
0.5070243  624393.6  352667.1  10316.3  160116.7  24588.69  6776.555  21264.16  777.6155  0.0  0.0
0.5188344  629236.7  321571.3  8402.34  157531.7  20957.05  7814.905  20034.44  916.4515  0.0  0.0
0.5309196  605482.2  298467.9  9659.829  162935.8  23734.5  6789.699  22958.96  1061.08  0.0  0.0
0.5432863  607914.4  281416.7  10408.12  164961.9  22741.93  8430.158  19994.68  428.6487  0.0  0.0
0.5559411  591949.6  263417.0  9817.154  151203.8  20474.26  6048.796  19814.54  388.6582  0.0  0.0
0.5688906  587575.9  249313.7  10011.67  147013.2  22709.81  6382.314  21371.27  779.0138  0.0  0.0
0.5821418  573867.8  229833.4  9527.655  144209.3  20960.68  7536.148  18866.48  829.8444  0.0  0.0
0.5957016  578856.0  219004.8  10915.85  138151.5  17368.99  5547.883  20131.48  806.1429  0.0  0.0
0.6095773  571377.0  206370.3  8885.095  149968.1  20726.37  7307.551  18313.74  639.6675  0.0  0.0
0.6237762  569348.3  190867.3  9906.114  139878.0  23109.29  6197.559  17646.49  637.3612  0.0  0.0
0.6383058  577384.0  184481.5  8022.585  133148.4  17169.04  6778.683  17135.81  852.3575  0.0  0.0
0.6531738  568427.8  182564.3  9480.014  127655.0  20164.41  5596.126  15689.51  913.2123  0.0  0.0
0.6683882  569375.2  172318.5  8016.685  126363.7  18474.23  5739.319  15807.18  685.6611  0.0  0.0
0.683957  559787.1  159917.9  8173.485  125648.6  16950.56  6179.923  15627.58  593.0279  0.0  0.0
0.6998884  547797.1  158910.4  9582.798  119842.8  18416.1  5829.889  15082.46  1191.574  0.0  0.0
0.7161909  547786.9  146589.6  9808.507  116995.8  16888.63  5618.886  14606.15  619.8842  0.0  0.0
0.7328731  557037.2  142407.3  8522.378  119279.5  18930.94  5072.18  15211.02  728.5644  0.0  0.0
0.7499439  536580.6  141004.2  9926.431  116301.6  18278.5  5961.168  13985.83  525.443  0.0  0.0
0.7674123  549445.8  132469.1  8353.81  111167.2  14714.25  4734.677  13626.95  449.757  0.0  0.0
0.7852877  530848.6  131206.0  7817.05  108772.8  17393.27  4710.416  13533.62  317.1264  0.0  0.0
0.8035794  511840.1  123944.7  8412.746  112283.6  17936.79  5817.424  12830.8  299.3144  0.0  0.0
0.8222971  521685.6  120267.0  6399.534  108267.0  17023.36  4892.47  12529.17  538.7346  0.0  0.0
0.8414509  505422.6  107008.8  7307.064  103885.6  16020.02  4519.218  12392.11  532.975  0.0  0.0
0.8610508  497881.6  112595.6  6760.266  104239.9  16855.35  4986.014  13804.11  771.9331  0.0  0.0
0.8811073  486573.8  106903.3  6866.447  99453.61  15073.56  5045.938  12556.3  753.7703  0.0  0.0
0.9016309  474902.9  100731.7  6764.001  98545.07  14992.42  4709.006  11176.5  336.755  0.0  0.0
0.9226326  475862.9  95847.42  6088.556  98386.41  13604.1  4044.048  10773.39  563.797  0.0  0.0
0.9441234  461095.2  92614.34  6387.9  95633.35  13722.93  4795.533  10216.31  514.944  0.0  0.0
0.9661149  449424.5  90305.51  5883.891  92434.56  13676.18  4259.879  10406.01  274.5381  0.0  0.0
0.9886186  445312.6  88078.66  5828.155  87458.43  11836.9  4126.671  10567.51  482.4982  0.0  0.0
1.011646  429965.6  87760.56  6268.108  87312.27  12553.92  4391.817  9774.184  383.2912  0.0  0.0
1.035211  427487.3  85150.61  6638.108  85060.15  12327.84  3002.761  9982.104  406.074  0.0  0.0
1.059324  414350.0  81843.22  7108.881  82899.39  12514.48  3164.333  9670.876  255.0556  0.0  0.0
1.083999  404453.5  77737.67  5159.724  83214.27  11982.22  4615.33  9581.475  290.9584  0.0  0.0
1.109248  399059.2  75544.11  6601.421  79247.28  12481.15  3300.378  8905.822  248.9795  0.0  0.0
1.135086  393166.3  72618.13  6700.818  75760.41  10362.58  3065.09  8300.578  202.8684  0.0  0.0
1.161526  385314.7  72596.16  5720.176  74552.05  10610.34  3527.584  9112.983  290.5706  0.0  0.0
1.188581  375004.2  66699.42  6106.907  73895.75  11124.48  3671.465  7087.436  331.386  0.0  0.0
1.216267  372399.6  68573.09  6198.254  71429.12  11112.18  3051.69  7083.974  501.1724  0.0  0.0
1.244597  360041.6  64369.02  5518.162  71091.24  11610.68  3246.353  7644.615  488.857  0.0  0.0
1.273587  350736.5  63860.39  5194.833  70136.99  11019.87  3546.074  7634.529  368.0585  0.0  0.0
1.303253  349214.7  61271.32  5538.54  70488.31  37420.63  3438.628  7206.174  381.7419  0.0  0.0
1.33361  337365.2  60206.97  5449.333  69972.58  278149.0  2991.471  7239.072  492.2793  0.0  0.0
1.364674  330324.5  59701.1  5713.148  64001.1  17213.36  3388.887  6631.662  262.942  0.0  0.0
1.396461  324415.4  55094.6  5643.343  64009.15  8706.516  3221.401  6296.776  321.4913  0.0  0.0
1.428989  314643.5  56180.76  5561.417  60980.25  8565.873  2343.746  6577.518  346.9978  0.0  0.0
1.462274  303831.9  52374.77  5477.237  62884.05  9032.685  2932.185  5879.541  378.4533  0.0  0.0
1.496335  298770.5  51201.38  5733.835  60833.85  7600.554  2414.126  6175.394  473.5746  0.0  0.0
1.531189  297302.6  52390.4  5721.369  59064.11  8103.122  2627.532  6518.61  363.122  0.0  0.0
1.566855  289636.0  50061.07  5112.902  56279.54  7226.777  2347.631  5545.926  330.7964  0.0  0.0
1.603352  278328.9  47238.44  5664.397  54808.41  7650.777  2143.61  5652.18  251.7004  0.0  0.0
1.640699  277795.8  46701.01  5916.672  56004.36  7585.799  2537.949  5717.926  408.5311  0.0  0.0
1.678915  274594.2  46144.42  4729.731  53648.33  7634.401  2112.448  5358.289  379.4163  0.0  0.0
1.718022  260672.9  44759.01  5837.449  53632.75  6635.981  2747.377  5914.173  206.3848  0.0  0.0
1.75804  259557.6  44180.82  5134.246  53188.1  5959.62  2071.727  4902.963  349.617  0.0  0.0
1.79899  252629.6  42587.31  4600.539  50175.58  6933.886  2349.88  5174.735  194.5369  0.0  0.0
1.840894  243747.0  40751.68  4228.019  51607.43  5391.352  1998.25  4479.634  325.6007  0.0  0.0
1.883774  243917.4  41610.03  5206.718  49884.58  5081.102  2092.529  4954.767  244.619  0.0  0.0
1.927653  234544.9  39554.2  6025.25  47098.65  5429.573  1825.743  5059.111  248.784  0.0  0.0
1.972553  231964.4  39124.12  4569.583  45739.6  5478.49  2025.338  4729.762  400.9008  0.0  0.0
2.0185  224095.7  37767.19  5310.181  46216.8  5355.183  6811.795  4925.98  366.2995  0.0  0.0
2.065517  222839.6  37634.82  5026.264  43789.41  4766.874  1828.265  4492.455  345.1772  0.0  0.0
2.113629  214298.8  34751.79  5013.278  45997.96  4646.565  1733.787  4616.286  440.3489  0.0  0.0
2.162862  214696.0  34635.24  5081.152  41210.85  5097.513  2166.513  4147.93  293.6574  0.0  0.0
2.213241  209305.4  33449.14  4951.774  42361.51  4023.06  1791.842  4006.965  281.9297  0.0  0.0
2.264794  200879.6  32229.67  4642.439  41181.6  4526.114  1440.084  4002.032  233.7644  0.0  0.0
2.317548  193884.5  32425.62  4994.232  40360.16  4091.138  1482.994  4131.619  233.7843  0.0  0.0
2.371531  187629.3  32389.67  4874.267  39664.58  3516.171  1735.571  3187.966  314.0606  0.0  0.0
2.426771  184026.0  30541.36  4792.666  37969.52  3817.162  1773.47  3867.904  216.6941  0.0  0.0
2.483298  183713.3  29719.83  4662.427  37161.11  3629.444  1463.552  3773.774  339.7489  0.0  0.0
2.541141  176594.8  29705.2  4925.948  35137.97  3342.25  1532.666  3617.285  242.1151  0.0  0.0
2.600332  176600.9  28429.5  4844.618  35342.94  3464.691  1260.123  3241.972  325.6937  0.0  0.0
2.660901  170914.1  28286.36  4712.258  35360.32  3238.366  1462.053  3323.235  131.0824  0.0  0.0
2.722882  167707.1  26653.76  4756.938  33838.3  3885.8  1324.072  2994.885  216.5282  0.0  0.0
2.786306  162792.8  26115.63  4657.667  33682.44  2461.716  1417.371  3090.365  245.0813  0.0  0.0
2.851207  159542.6  26945.08  4581.547  32525.25  2802.5  1474.279  2999.852  214.0031  0.0  0.0
2.91762  154782.5  25518.65  5010.679  31155.92  2669.522  1281.783  3258.937  339.1154  0.0  0.0
2.98558  151379.7  25099.31  4977.518  31595.2  2485.83  1433.381  2859.381  205.957  0.0  0.0
3.055124  147637.0  23358.24  4468.246  31043.04  2808.022  1357.736  3142.996  222.7633  0.0  0.0
3.126287  143654.6  24251.96  4882.15  30219.56  2294.479  1073.171  2840.159  249.5199  0.0  0.0
3.199107  144550.0  22514.05  4710.958  30176.3  2353.38  1223.033  3008.638  241.7223  0.0  0.0
3.273624  137821.3  22396.84  4588.705  29357.06  2236.248  908.8231  3097.607  170.2429  0.0  0.0
3.349876  135046.4  21924.39  4652.734  28511.35  2517.154  883.2485  2552.277  232.5544  0.0  0.0
3.427905  132666.2  22106.54  4654.38  28250.73  2164.16  1168.45  2668.658  159.4386  0.0  0.0
3.507751  127784.2  21314.96  4607.964  27190.0  2213.617  1194.14  2461.116  167.2251  0.0  0.0
3.589457  126924.5  21584.27  4576.434  26760.31  2252.729  1123.738  2581.847  311.64  0.0  0.0
3.673066  121657.3  19310.01  4233.991  27006.55  2124.579  994.8497  2711.816  272.5378  0.0  0.0
3.758623  119970.5  20707.03  4442.091  26278.24  1882.334  871.837  2598.008  298.0183  0.0  0.0
3.846173  116619.2  19244.39  4826.345  25691.35  1891.656  816.9399  2867.55  296.8693  0.0  0.0
3.935762  114300.0  18876.64  4684.902  25147.57  1566.262  1058.144  2431.542  197.5276  0.0  0.0
4.027437  112212.8  18514.75  4807.029  23734.98  1751.751  938.9754  2381.564  188.5344  0.0  0.0
4.121248  108911.1  18142.65  4378.052  23971.06  1481.487  950.0179  2781.632  219.536  0.0  0.0
4.217245  106368.9  18252.17  4327.787  23424.56  1597.254  838.837  2418.01  211.3771  0.0  0.0
4.315477  102232.4  17254.76  4639.377  24305.32  1522.169  860.2404  2406.949  273.1194  0.0  0.0
4.415997  99209.23  16767.18  4439.011  22727.28  1674.718  801.4663  2367.021  192.776  0.0  0.0
4.518859  100077.6  16025.78  4629.896  22491.33  1387.043  722.4892  2540.454  168.8484  0.0  0.0
4.624117  98216.84  16251.79  4458.985  22285.31  1455.177  790.6214  2196.516  137.5229  0.0  0.0
4.731826  96139.44  16005.27  3732.72  22393.17  1565.956  634.1292  2244.186  168.8489  0.0  0.0
4.842045  91172.02  15170.4  3772.251  21658.95  1426.27  602.025  2167.673  146.8598  0.0  0.0
4.95483  91782.66  14772.74  3007.131  21701.95  1256.52  824.1116  2069.736  136.8814  0.0  0.0
5.070243  89201.28  14172.36  2799.193  21065.23  1096.978  698.2273  2341.986  129.2  0.0  0.0
5.188344  85516.9  14365.03  2495.974  20301.03  1077.338  704.9771  2271.934  119.5706  0.0  0.0
5.309196  85014.37  14223.71  2221.053  20291.8  1265.833  509.3534  2226.141  100.1527  0.0  0.0
5.432863  83402.22  13330.44  2377.058  20383.12  1109.36  600.5329  1932.509  75.08947  0.0  0.0
5.559411  81180.68  13427.14  2229.218  19710.68  1054.561  571.0591  1963.931  74.47394  0.0  0.0
5.688906  79950.38  13368.61  2313.199  19153.86  962.0601  570.4504  1974.507  60.09034  0.0  0.0
5.821418  76501.42  12732.28  2121.165  19197.49  991.1617  614.039  2009.89  120.4964  0.0  0.0
5.957016  76144.39  12233.22  2180.399  18904.7  851.5749  569.3092  2091.276  97.48518  0.0  0.0
6.095773  73320.61  12277.66  2069.337  19062.14  1029.235  571.1056  2000.083  101.251  0.0  0.0
6.237762  71280.91  12014.47  2080.9  18430.17  868.3008  537.8304  1947.475  107.3711  0.0  0.0
6.383058  69812.92  11776.26  2055.994  18237.98  922.4833  560.0581  1980.78  77.83963  0.0  0.0
6.531738  67113.24  11178.55  1824.031  18457.91  890.6135  533.2129  1992.49  122.2138  0.0  0.0
6.683882  66701.86  10974.2  1903.177  18336.65  859.8135  554.358  2131.294  90.1912  0.0  0.0
6.83957  66202.75  10608.66  1700.997  18174.74  762.7591  555.5567  1841.746  120.2058  0.0  0.0
6.998884  63132.51  10774.17  1817.551  18044.34  836.7156  463.2325  1812.928  97.48794  0.0  0.0
7.161909  61732.73  10840.72  1749.126  17436.65  735.039  637.0462  2088.334  112.2487  0.0  0.0
7.328731  60208.85  10407.41  1903.328  17567.98  844.9434  484.8031  1975.551  57.48393  0.0  0.0
7.499439  58305.86  10445.89  1770.876  17523.68  779.6757  500.176  1786.784  84.55272  0.0  0.0
7.674123  57029.79  9651.96  1858.067  15906.25  652.4  425.4384  1880.128  71.25256  0.0  0.0
7.852877  56543.53  9953.903  1879.038  15173.44  737.4493  479.9704  1833.183  94.6291  0.0  0.0
8.035794  53705.18  9178.138  1533.714  14461.48  601.91  380.2018  1850.907  43.12982  0.0  0.0
8.222971  53454.53  9088.062  1822.286  14016.05  714.0247  467.8224  1697.542  125.2294  0.0  0.0
8.414509  51883.05  8385.84  1654.999  13580.69  648.1026  463.2176  1864.69  47.07275  0.0  0.0
8.610508  50075.21  7470.001  1660.09  13418.84  681.636  413.0175  1632.136  67.43822  0.0  0.0
8.811073  49706.63  7257.952  1648.421  13364.51  684.9787  422.2731  1740.444  62.15697  0.0  0.0
9.016309  49037.18  6930.967  1660.909  13277.62  505.9999  393.3257  1622.069  101.8791  0.0  0.0
9.226326  47803.81  6676.741  1690.082  12804.85  577.6462  315.297  1659.475  53.09869  0.0  0.0
9.441234  46567.49  6694.212  1580.787  12309.37  688.633  427.4119  1550.122  66.05857  0.0  0.0
9.661149  45720.75  6417.404  1539.661  11988.77  552.7267  380.2716  1526.301  52.14741  0.0  0.0
9.886186  44006.99  6661.889  1648.485  12147.73  627.441  346.6185  1509.701  50.34535  0.0  0.0
10.11646  42980.03  6133.128  1636.372  12049.33  538.4195  280.1744  1630.834  60.14685  0.0  0.0
10.35211  42172.7  5937.747  1566.19  11868.99  519.6902  300.9034  1509.006  55.8829  0.0  0.0
10.59324  41356.68  5612.306  1450.016  11677.21  559.1873  341.5638  1643.655  59.32575  0.0  0.0
10.83999  40331.57  5730.599  1448.943  11488.13  478.7473  302.2971  1471.5  77.52748  0.0  0.0
11.09248  39253.6  5764.159  1455.232  11254.94  465.1911  351.2495  1582.678  68.44097  0.0  0.0
11.35086  38578.18  5390.729  1321.706  10883.96  453.4235  323.4339  1585.641  42.12715  0.0  0.0
11.61526  36766.27  5441.271  1434.83  10987.54  431.2044  267.6495  1461.229  51.5631  0.0  0.0
11.88581  36506.4  5178.486  1315.934  10558.02  511.4978  282.0198  1431.804  50.57208  0.0  0.0
12.16267  35703.61  4945.234  1300.013  10824.93  469.2845  214.3597  1523.693  38.10124  0.0  0.0
12.44597  35015.44  4973.472  1167.618  10525.8  463.5226  286.8794  1398.838  50.5642  0.0  0.0
12.73587  35064.36  5121.958  1031.88  10753.6  388.5911  269.7437  1173.606  47.43532  0.0  0.0
13.03253  34159.22  4686.644  987.73  10763.59  378.5793  261.8373  1127.163  34.69169  0.0  0.0
13.3361  33339.27  4528.735  902.5555  10216.68  410.8331  263.7909  1125.703  32.17597  0.0  0.0
13.64674  31947.54  4523.83  848.5305  10187.74  399.9856  245.6289  1098.042  11.80725  0.0  0.0
13.96461  31327.24  4300.899  951.0383  10455.36  383.3544  238.7004  1011.312  24.94302  0.0  0.0
14.28989  30901.27  4174.854  877.0227  10294.41  391.858  213.7272  1020.812  35.1344  0.0  0.0
14.62274  30129.52  4073.705  788.4494  9787.423  332.8025  246.5204  996.0908  20.22655  0.0  0.0
14.96335  29703.63  4247.398  925.5545  9994.555  378.1689  238.761  1087.921  30.88278  0.0  0.0
15.31189  29218.01  3875.608  838.2553  9927.31  367.6603  255.4504  1037.743  33.24316  0.0  0.0
15.66855  27960.13  3734.39  766.1204  9688.06  325.807  266.655  912.6698  32.12611  0.0  0.0
16.03352  27218.66  3821.474  833.7644  9665.193  304.9822  249.2625  1045.944  37.38125  0.0  0.0
16.40699  27018.77  3568.168  747.2838  9790.08  349.5001  207.773  905.0261  19.93286  0.0  0.0
16.78915  26044.67  3471.451  800.4554  9690.081  352.3318  200.2497  961.8244  14.09845  0.0  0.0
17.18022  25506.37  3361.109  685.1601  9667.525  312.7877  237.5296  952.0144  29.09712  0.0  0.0
17.5804  25169.53  3470.774  755.5848  9657.181  286.8431  212.631  811.318  25.96435  0.0  0.0
17.9899  24481.76  3260.388  667.6976  9625.689  294.3644  212.7642  910.3255  29.86376  0.0  0.0
18.40894  23794.63  3134.505  609.1358  9482.29  298.9647  171.6829  866.2237  15.42952  0.0  0.0
18.83774  22951.78  3152.172  669.532  9352.214  283.26  203.9721  841.3647  24.80773  0.0  0.0
19.27653  22554.61  2917.681  628.4038  9475.489  279.7412  176.483  843.0763  19.03844  0.0  0.0
19.72553  21914.91  2944.182  591.9937  9575.911  322.0549  205.7787  821.904  18.56104  0.0  0.0
20.185  21490.75  2801.468  533.5484  9475.912  253.7029  219.8572  855.9755  14.05037  0.0  0.0
20.65517  21080.79  2803.072  510.7217  9676.441  284.2413  183.102  769.6046  24.34912  0.0  0.0
21.13629  20223.71  2651.093  513.2746  9368.602  214.7497  183.9479  766.4906  31.89087  0.0  0.0
21.62862  20298.44  2507.353  477.7756  9382.477  240.9862  167.9534  682.5365  15.60256  0.0  0.0
22.13241  19398.69  2584.071  435.1494  9145.26  250.7677  222.8632  703.2445  21.13442  0.0  0.0
22.64794  18915.78  2566.058  387.2742  9022.521  226.8992  194.874  596.8568  14.51679  0.0  0.0
23.17548  18627.11  2395.694  389.1032  8674.774  196.9972  181.5927  723.6724  29.17852  0.0  0.0
23.71531  17886.05  2376.635  376.675  8107.816  202.2009  180.2062  643.7428  15.54828  0.0  0.0
24.26771  17418.36  2223.531  335.5645  7885.175  203.4505  181.1332  581.8241  13.36889  0.0  0.0
24.83298  17217.43  2147.61  363.0273  7474.022  171.466  162.9836  528.0922  11.43806  0.0  0.0
25.41141  16504.06  2087.051  310.8563  7102.403  191.5249  146.5749  539.0249  19.84298  0.0  0.0
26.00332  15938.55  2042.166  350.5967  6705.398  171.7324  153.5103  493.7182  5.945997  0.0  0.0
26.60901  15537.58  1988.923  269.1833  6040.105  164.7385  133.3512  466.3536  17.08919  0.0  0.0
27.22882  14999.35  1836.383  317.8619  6024.254  179.539  117.9541  444.8918  7.12988  0.0  0.0
27.86306  14844.68  1918.595  314.5701  5764.219  166.8479  134.0675  413.0983  22.74207  0.0  0.0
28.51207  14256.58  1757.83  286.7694  5384.915  173.5605  128.3044  416.7341  14.47099  0.0  0.0
29.1762  13751.89  1818.013  282.2662  4916.794  154.1285  107.9078  398.0486  8.112808  0.0  0.0
29.8558  13314.37  1694.323  249.7  4985.49  156.2643  100.7965  425.3846  10.86664  0.0  0.0
30.55124  13161.77  1756.689  250.4986  4741.305  160.1422  95.53093  414.9909  13.63306  0.0  0.0
31.26287  12840.1  1660.799  280.9443  4427.815  156.1497  105.401  427.9667  7.66856  0.0  0.0
31.99107  12303.58  1571.799  220.0684  4237.559  134.9192  106.8981  351.5936  14.15986  0.0  0.0
32.73624  11907.8  1566.588  217.2481  4083.88  137.6325  95.16463  322.3896  5.890575  0.0  0.0
33.49876  11610.81  1476.915  245.8436  3757.782  112.0182  93.34847  345.0134  7.143751  0.0  0.0
34.27905  11092.65  1459.856  239.6393  3644.738  122.5817  96.98843  319.8528  10.60474  0.0  0.0
35.07751  10578.24  1504.704  217.4942  3525.793  123.1963  104.3021  280.6153  9.261393  0.0  0.0
35.89457  10275.65  1416.331  238.461  3387.215  107.7358  84.62532  298.1851  15.05203  0.0  0.0
36.73066  9924.71  1402.454  173.3439  3294.576  114.1043  74.82405  286.0885  8.773616  0.0  0.0
37.58623  9716.256  1364.002  185.7024  3303.345  114.1993  76.03273  249.2325  9.972074  0.0  0.0
38.46173  9383.667  1320.6  212.7206  3034.966  114.9987  68.0349  252.6382  9.666038  0.0  0.0
39.35762  9189.215  1224.848  189.2734  2857.032  130.4786  66.74005  242.341  9.446012  0.0  0.0
40.27437  8872.431  1184.048  174.8389  2687.384  122.6018  60.95044  264.5284  10.26625  0.0  0.0
41.21248  8722.835  1182.936  175.7068  2706.156  113.4459  58.43543  235.5754  3.698979  0.0  0.0
42.17245  8529.85  1085.464  153.5921  2503.879  116.5689  67.17723  251.3353  3.583884  0.0  0.0
43.15477  8334.389  1048.991  165.2424  2510.166  123.0336  71.00219  223.6242  3.633138  0.0  0.0
44.15997  8466.949  1065.8  158.4715  2393.811  135.192  63.86854  200.7423  14.19192  0.0  0.0
45.18859  7951.437  959.5758  151.2408  2335.727  111.4507  62.9145  253.436  4.344233  0.0  0.0
46.24117  7688.914  976.4109  142.4257  2183.057  113.61  55.94089  199.7285  6.039287  0.0  0.0
47.31826  7695.069  1009.256  121.4875  2148.316  123.727  45.37882  210.4186  5.947709  0.0  0.0
48.42045  7599.845  900.7486  118.5965  2055.562  84.41322  56.70603  209.7728  4.879481  0.0  0.0
49.5483  7235.221  954.6726  139.9844  2018.475  107.3857  46.63225  207.9956  5.71508  0.0  0.0
50.70243  7136.117  914.8503  116.2312  1922.564  96.94067  59.40475  200.2287  6.415884  0.0  0.0
51.88344  6824.115  848.9649  103.783  1955.83  86.37983  50.57728  182.4197  2.963316  0.0  0.0
53.09196  6830.326  805.3034  125.4792  1882.654  93.26478  51.0948  195.1844  2.732255  0.0  0.0
54.32863  6552.298  800.5546  121.8555  1845.436  102.5335  49.19627  177.9827  3.549422  0.0  0.0
55.59411  6412.868  770.09  110.4102  1651.403  85.12981  51.24038  168.994  1.843685  0.0  0.0
56.88906  6080.736  754.4005  114.6152  1666.604  88.08567  42.50832  186.1113  3.496554  0.0  0.0
58.21418  5928.333  784.5883  116.7736  1732.654  83.62605  56.57386  165.4765  3.245368  0.0  0.0
59.57016  5844.175  728.5616  99.43911  1700.978  95.04277  42.6001  158.0717  3.922446  0.0  0.0
60.95773  5653.135  714.1719  88.92505  1553.15  81.2231  50.82856  149.3294  1.660086  0.0  0.0
62.37762  5472.624  680.7525  84.15758  1583.934  70.03732  41.3303  130.6194  3.718056  0.0  0.0
63.83058  5231.442  668.9037  79.13922  1447.681  77.06395  43.70994  128.1768  2.279395  0.0  0.0
65.31738  5086.594  625.1255  84.75174  1446.518  75.71537  36.28513  116.3026  1.56923  0.0  0.0
66.83882  4971.946  611.4093  82.45867  1348.677  74.91458  38.96806  121.4852  1.553004  0.0  0.0
68.3957  4736.603  609.087  85.80775  1358.065  63.20804  32.63272  98.67288  1.511303  0.0  0.0
69.98884  4549.156  604.8038  69.40819  1324.756  51.90876  25.61618  108.211  0.7880948  0.0  0.0
71.61909  4389.82  578.0533  54.2141  1230.539  54.99032  28.60491  115.7841  1.982999  0.0  0.0
73.28731  4312.895  562.5543  69.56741  1082.968  54.79344  27.13004  91.26907  0.7941079  0.0  0.0
74.99439  4087.574  525.2809  64.61913  960.7274  44.5755  26.04919  88.45604  1.911123  0.0  0.0
76.74123  3840.218  518.8816  62.27666  895.4052  52.59333  39.82559  98.44058  1.87328  0.0  0.0
78.52877  3711.015  512.6287  62.65652  842.7466  43.25507  26.71295  95.89562  1.294168  0.0  0.0
80.35794  3452.677  507.6185  53.01508  829.3572  36.74682  27.65064  101.7983  2.324038  0.0  0.0
82.22971  3389.106  484.2802  48.90337  752.8605  39.01601  24.01066  92.0127  2.286981  0.0  0.0
84.14509  3233.934  481.1795  42.12805  728.1463  30.74697  18.48844  90.99699  1.687806  0.0  0.0
86.10508  3100.363  481.8227  41.77942  754.7079  29.03324  20.04484  59.80666  1.114723  0.0  0.0
88.11073  2926.218  442.5369  54.36886  695.1377  32.81848  18.09502  82.02649  1.079491  0.0  0.0
90.16309  2759.136  448.9328  49.50409  663.4617  33.95488  17.83245  60.98295  0.1300584  0.0  0.0
92.26326  2509.069  394.785  38.15762  645.5822  23.06592  18.80108  75.09134  1.967664  0.0  0.0
94.41234  2201.719  359.0946  38.71511  589.6371  22.64208  17.9223  56.04398  1.485858  0.0  0.0
96.61149  1968.596  351.4915  35.9907  551.5757  17.56379  10.62279  58.41409  1.002489  0.0  0.0
98.86186  1738.72  348.6833  28.14683  518.8031  22.82674  11.56713  62.0223  2.293217  0.0  0.0
101.1646  1622.003  331.8509  31.15529  500.5926  23.0799  10.47096  59.08215  1.356631  0.0  0.0
103.5211  1517.422  302.4851  26.72478  491.6437  20.82183  8.730654  59.98601  0.578967  0.0  0.0
105.9324  1441.087  269.598  26.53874  426.9158  15.55507  8.486821  56.12372  1.340672  0.0  0.0
108.3999  1406.881  272.5762  24.3881  364.864  8.017183  10.3971  43.74794  0.9094955  0.0  0.0
110.9248  1328.232  265.7569  25.71626  322.6083  13.19094  7.822944  50.23442  0.1018001  0.0  0.0
113.5086  1274.057  228.5809  21.64899  306.7744  14.14952  9.492956  52.48866  0.466804  0.0  0.0
116.1526  1233.495  206.372  22.99213  297.2936  10.08079  10.3201  47.93984  0.4561782  0.0  0.0
118.8581  1213.379  198.6087  20.26172  263.5923  10.58579  7.607736  41.2104  1.574896  0.0  0.0
121.6267  1169.633  184.0715  20.33971  247.3903  12.54449  8.188018  47.01772  0.7998761  0.0  0.0
124.4597  1115.874  156.7106  14.01769  224.8903  12.78238  6.871008  42.53813  1.169013  0.0  0.0
127.3587  1061.027  148.6455  16.8837  226.513  10.82044  5.76999  41.97225  0.3921684  0.0  0.0
130.3253  1054.951  131.8118  17.52247  207.2204  13.13352  6.238505  40.357  1.059746  0.0  0.0
133.361  1001.171  122.1287  13.79854  217.9206  8.721382  5.813169  40.90061  0.3908013  0.0  0.0
136.4674  967.8537  105.3677  14.13687  206.8846  9.108447  7.615833  39.70545  0.06683347  0.0  0.0
139.6461  923.2153  96.42251  13.81197  208.7656  10.84493  5.203202  34.63099  0.3701022  0.0  0.0
142.8989  895.7509  97.42806  13.19971  202.9923  8.513102  5.713899  35.68755  0.6899229  0.0  0.0
146.2274  890.292  97.01913  13.11013  190.3464  8.503468  5.794714  27.75285  0.07425312  0.0  0.0
149.6335  832.2908  85.38623  12.00481  182.7134  8.388273  6.568395  32.23825  0.9288053  0.0  0.0
153.1189  805.8829  88.21635  17.96606  187.804  10.46365  5.584965  32.08306  1.177126  0.0  0.0
156.6855  788.5366  88.21237  10.53038  190.1317  9.291348  6.915845  34.74  0.6209015  0.0  0.0
160.3352  761.494  75.67807  7.774216  174.8386  10.24463  5.791385  28.74293  0.6040593  0.0  0.0
164.0699  763.2116  70.83976  8.38345  179.4275  7.380189  4.071281  26.70951  0.04500115  0.0  0.0
167.8915  762.7983  67.67512  9.527445  173.072  5.556598  6.865555  27.15956  0.3026639  0.0  0.0
171.8022  749.0423  67.50229  7.41964  158.3606  9.143726  3.695916  28.7786  0.3058863  0.0  0.0
175.804  745.708  63.42367  6.450325  157.8464  7.018527  4.57773  25.74448  0.05929062  0.0  0.0
179.899  719.8831  67.11257  6.083805  162.1262  7.025346  2.754612  22.68631  0.3090186  0.0  0.0
184.0894  714.0872  52.91335  6.943285  152.0303  4.482583  4.123976  19.9239  0.2831105  0.0  0.0
188.3774  739.2795  56.98861  7.74204  150.8476  4.668741  2.821994  22.7604  0.04841657  0.0  0.0
192.7653  732.1464  46.21948  6.572206  134.5263  4.99055  4.098335  22.80332  0.06083289  0.0  0.0
197.2553  758.6577  45.05511  3.575697  137.3077  4.892364  5.09713  24.97484  0.06164995  0.0  0.0
201.85  791.6342  38.57721  5.120963  129.5905  5.187665  1.712726  22.66564  0.2797165  0.0  0.0
206.5517  785.3306  41.26314  4.979164  113.2276  4.03716  3.22342  19.21225  0.4625912  0.0  0.0
211.3629  824.4798  36.95396  4.469243  120.5011  4.111704  3.242513  21.63319  0.02671272  0.0  0.0
216.2862  811.855  34.93808  5.150651  107.8464  1.500014  2.377532  18.49616  0.04216907  0.0  0.0
221.3241  772.1326  34.5019  4.211186  84.13345  3.589124  2.745317  14.49386  0.01962342  0.0  0.0
226.4794  704.6895  29.86777  4.531463  64.38014  1.658788  2.492976  11.27592  0.03068278  0.0  0.0
231.7548  632.3869  26.25318  4.222172  59.73633  3.652469  0.8864125  9.864853  0.03185838  0.0  0.0
237.1531  628.1982  24.45237  3.160935  59.00655  2.247084  1.452272  9.570709  0.02380773  0.0  0.0
242.6771  555.2152  21.64257  3.989191  50.33467  2.040232  1.755673  7.249983  0.0161071  0.0  0.0
248.3298  523.0692  23.28887  3.737483  49.80104  2.142451  1.344934  7.83175  0.02273621  0.0  0.0
254.1141  473.5123  17.10325  1.649309  45.49871  2.242377  1.105806  8.478987  0.02905518  0.0  0.0
260.0332  430.4451  20.07108  2.665677  36.1236  0.708175  1.451425  4.574744  0.01503202  0.0  0.0
266.0901  402.9147  20.05817  2.62785  33.29698  1.485307  0.7181702  4.42654  0.01632205  0.0  0.0
272.2882  371.2339  16.28707  2.418098  33.08615  2.056021  0.8645179  2.733918  0.01754557  0.0  0.0
278.6306  338.8241  14.32641  3.129957  29.15942  1.66318  1.193998  3.105017  0.02026367  0.0  0.0
285.1207  245.6245  15.41237  2.263568  27.92749  1.49432  0.6717587  2.760151  0.01066284  0.0  0.0
291.762  213.2284  13.46875  1.716343  27.01491  0.9958658  1.12835  3.260009  0.01190871  0.0  0.0
298.558  205.9308  12.73739  1.272866  25.14602  1.731098  1.365967  1.979853  0.008728226  0.0  0.0
305.5124  199.8615  9.301471  1.651889  22.13417  0.97379  0.4776546  1.936207  0.01137273  0.0  0.0
312.6287  194.3549  10.82628  0.9682946  22.12352  0.9418992  0.4723388  1.372561  0.01111385  0.0  0.0
319.9107  184.8968  10.9111  2.356809  19.77086  0.6380762  0.572911  0.9462535  0.009503263  0.0  0.0
327.3624  170.7378  11.54234  1.24047  16.87968  0.9963563  0.8384782  1.110453  0.009286943  0.0  0.0
334.9876  168.7157  9.391893  0.8012411  14.37307  0.6028755  0.8051306  1.317251  0.002593013  0.0  0.0
342.7905  157.4722  8.173381  1.0288  12.04532  0.2077871  0.2787388  0.8045415  0.005067978  0.0  0.0
350.7751  146.1059  6.662507  0.4952617  14.32544  0.2872518  0.7317491  0.7998476  0.004952617  0.0  0.0
358.9457  134.6697  7.454627  0.4609987  11.47657  0.284343  0.3424216  0.6243447  0.002419941  0.0  0.0
367.3066  134.7672  7.526154  0.6929028  9.963139  0.3807418  0.1005064  0.5876667  0.00591214  0.0  0.0
375.8623  115.5027  5.299181  0.4252287  7.850553  0.2368801  0.1028406  0.595089  0.006933076  0.0  0.0
384.6173  113.3196  4.921097  0.5081445  6.462469  0.1309884  0.08356154  0.5352455  0.00451684  0.0  0.0
393.5762  104.2383  3.135061  0.3652605  6.289984  0.2129767  0.1909065  0.3608465  0.00551753  0.0  0.0
402.7437  95.99587  3.027033  0.7764388  4.459131  0.2275397  0.08519259  0.2588129  0.002156774  0.0  0.0
412.1248  84.16178  3.730594  0.4310206  4.843449  0.09379177  0.07482265  0.2328987  0.00105384  0.0  0.0
421.7245  75.97628  2.983481  0.09371651  3.253302  0.3068958  0.06591051  0.2111196  0.001029852  0.0  0.0
431.5477  71.443  2.107421  0.1026538  3.212459  0.1026538  0.06742943  0.1861858  0.002012819  0.0  0.0
441.5997  68.56377  1.976837  0.08753157  2.40761  0.08753157  0.1573601  0.1111356  0.0009835008  0.0  0.0
451.8859  66.31011  2.196145  0.1730004  2.214406  0.06055016  0.06535572  0.1326337  0.0009611136  0.0  0.0
462.4117  62.46577  1.175923  0.08547047  2.238199  0.1793941  0.05729339  0.09861978  0.0  0.0  0.0
473.1826  53.73223  0.8150564  0.1698034  2.11107  0.08536064  0.07251065  0.1000463  0.0  0.0  0.0
484.2045  49.32581  0.8377638  0.07175707  2.193075  0.09687205  0.07444796  0.04843602  0.0  0.0  0.0
495.483  42.2539  0.8046692  0.08327187  2.172958  0.08414842  0.07275332  0.05083967  0.0  0.0  0.0
507.0243  39.21142  0.5807703  0.0651011  2.108076  0.08651593  0.06167472  0.05053901  0.0  0.0  0.0
518.8344  33.73995  0.9794011  0.06864179  2.027444  0.08622078  0.04018056  0.0334838  0.0008370949  0.0  0.0
530.9196  30.62007  0.6634307  0.06135303  1.954298  0.05726282  0.03681182  0.02290513  0.0  0.0  0.0
543.2863  29.02772  0.5979658  0.05595936  1.647604  0.04956401  0.04796517  0.01678781  0.0  0.0  0.0
555.9411  29.66927  0.5671675  0.05702924  1.174959  0.0453109  0.04609212  0.02031178  0.0007812225  0.0  0.0
568.8906  27.31282  0.3603435  0.04580638  1.057364  0.05115046  0.03206447  0.01908599  0.0  0.0  0.0
582.1418  25.60185  0.3543793  0.04550976  1.097457  0.0544625  0.02984247  0.01790548  0.0  0.0  0.0
595.7016  22.84934  0.3484999  0.04082844  1.065185  0.04009936  0.02697593  0.008748951  0.0  0.0  0.0
609.5773  20.92777  0.3327297  0.03989907  0.919816  0.04417397  0.01781208  0.004987383  0.0  0.0  0.0
623.7762  21.979  0.320282  0.02785061  0.8341258  0.03690206  0.01671037  0.002088796  0.0  0.0  0.0
638.3058  19.91715  0.2857749  0.0292579  0.8178604  0.02789707  0.008845412  0.003402082  0.0  0.0  0.0
653.1738  19.05086  0.240704  0.01861799  0.722112  0.02194263  0.00731421  0.003324641  0.0  0.0  0.0
668.3882  18.03824  0.1617983  0.02144315  0.6257502  0.008447303  0.006497925  0.00259917  0.0  0.0  0.0
683.957  17.68035  0.1625604  0.01651004  0.2660656  0.003810009  0.006350015  0.001905004  0.0  0.0  0.0
699.8884  17.47957  0.1445875  0.01675477  0.2711791  0.01241094  0.0105493  0.001241094  0.0  0.0  0.0
716.1909  15.65114  0.1528183  0.009096325  0.2425687  0.009096325  0.003032108  0.001819265  0.0  0.0  0.0
732.8731  13.33212  0.1125974  0.01185236  0.2246022  0.006518796  0.004740943  0.002963089  0.0  0.0  0.0
749.9439  9.506969  0.09381877  0.01331995  0.1673681  0.00637041  0.001737385  0.0005791282  0.0  0.0  0.0
767.4123  8.435986  0.1013043  0.01188486  0.1346951  0.006225402  0.001697837  0.0  0.0  0.0  0.0
785.2877  7.60683  0.09789218  0.0105082  0.122227  0.006083695  0.003318379  0.0005530631  0.0  0.0  0.0
803.5794  6.358135  0.08053061  0.006485687  0.1145805  0.003783317  0.001080948  0.001080948  0.0  0.0  0.0
822.2971  4.934175  0.05228895  0.005809883  0.09242996  0.002112685  0.0005281712  0.001056342  0.0  0.0  0.0
841.4509  3.811241  0.04335648  0.00722608  0.04490492  0.001032297  0.002064594  0.0005161486  0.0  0.0  0.0
861.0508  3.439501  0.05144876  0.006052795  0.04640476  0.002017598  0.002521998  0.0  0.0  0.0  0.0
881.1073  3.23995  0.03992636  0.0009858361  0.04584138  0.0009858361  0.000492918  0.000492918  0.0  0.0  0.0
901.6309  3.10936  0.02745678  0.002890187  0.05009658  0.002890187  0.0  0.0  0.0  0.0  0.0
922.6326  2.426629  0.02259519  0.003295132  0.03436351  0.0009414662  0.0009414662  0.0  0.0  0.0  0.0
944.1234  2.011198  0.02116082  0.0009200358  0.01748068  0.0004600179  0.0004600179  0.0  0.0  0.0  0.0
966.1149  1.520367  0.02112869  0.001798186  0.02517461  0.002247733  0.00134864  0.0  0.0  0.0  0.0
988.6186  1.22876  0.01976912  0.0008786273  0.02196568  0.0004393137  0.0008786273  0.0  0.0  0.0  0.0